#
#   Spectrum of the blue flame from a butane torch showing excited molecular radical band emission and Swan bands.
#   Wikipedia User:Eli Rabett
#   Ocean Optics HR2000 spectrometer
#
#   the division between CH and C2 (Swan bands) is about 433 nm
#
#   File talk:Spectrum of blue flame - intensity corrected.png
#   January 2007
#   https://en.wikipedia.org/wiki/File_talk:Spectrum_of_blue_flame_-_intensity_corrected.png

wavelength,irradiance
188.06,0
188.53,0
189.01,0
189.48,0
189.95,0
190.43,0
190.9,0
191.37,0
191.85,0
192.32,0
192.79,0
193.27,0
193.74,0
194.21,0
194.69,0
195.16,0
195.63,0
196.11,0
196.58,0
197.05,0.001
197.53,0
198,0
198.47,0
198.95,0
199.42,0
199.89,0
200.37,0
200.84,0
201.31,0
201.78,0
202.26,0
202.73,0
203.2,0
203.68,0
204.15,0
204.62,0
205.09,0
205.57,0
206.04,0
206.51,0
206.98,0
207.46,0
207.93,0
208.4,0
208.87,0
209.35,0
209.82,0
210.29,0.004
210.76,0
211.24,0
211.71,0
212.18,0
212.65,0
213.13,0
213.6,0
214.07,0
214.54,0
215.01,0
215.49,0
215.96,0
216.43,0
216.9,-0.002
217.38,-0.001
217.85,0
218.32,-0.001
218.79,0
219.26,0
219.74,0
220.21,0
220.68,0
221.15,0
221.62,0
222.09,0
222.57,0
223.04,0.002
223.51,0
223.98,0.001
224.45,0
224.92,0.002
225.4,0
225.87,0
226.34,0
226.81,0.001
227.28,0
227.75,0
228.22,0
228.7,0
229.17,0
229.64,0
230.11,0
230.58,-0.002
231.05,0.001
231.52,0
231.99,0
232.47,0.001
232.94,0
233.41,0
233.88,0
234.35,0
234.82,0
235.29,0.012
235.76,0.014
236.23,0.002
236.7,0.015
237.18,0.001
237.65,0.001
238.12,0.001
238.59,0
239.06,0
239.53,0
240,-0.004
240.47,0
240.94,0
241.41,0
241.88,0.001
242.35,0
242.82,0
243.29,-0.016
243.76,0.003
244.24,0
244.71,0
245.18,0
245.65,0
246.12,0
246.59,0.001
247.06,0.002
247.53,0.001
248,0.001
248.47,0.001
248.94,0.004
249.41,0
249.88,0
250.35,0
250.82,0.001
251.29,0.002
251.76,0.001
252.23,-0.001
252.7,0.001
253.17,0.003
253.64,0.003
254.11,0.001
254.58,0.001
255.05,-0.001
255.52,0.001
255.99,0.004
256.46,0.002
256.93,0.001
257.4,-0.002
257.87,-0.004
258.34,0.001
258.81,0.016
259.28,0.005
259.75,0.002
260.21,0.002
260.68,0.002
261.15,-0.012
261.62,-0.003
262.09,0.044
262.56,-0.005
263.03,0
263.5,0.004
263.97,0.002
264.44,0.002
264.91,0.002
265.38,0.003
265.85,0.095
266.32,0.006
266.79,0.003
267.25,0.006
267.72,0.009
268.19,0.012
268.66,0.002
269.13,0.001
269.6,0.003
270.07,0.008
270.54,0.019
271.01,0.005
271.48,-0.004
271.94,0.004
272.41,0.019
272.88,0.013
273.35,0.029
273.82,-0.003
274.29,-0.004
274.76,0.069
275.23,-0.038
275.69,0.011
276.16,-0.035
276.63,0.031
277.1,-0.012
277.57,-0.056
278.04,0.009
278.51,-0.04
278.97,0.012
279.44,0.11
279.91,0.005
280.38,0.015
280.85,-0.003
281.32,0.081
281.78,-0.022
282.25,-0.046
282.72,-0.015
283.19,-0.045
283.66,-0.024
284.12,-0.112
284.59,0.474
285.06,-0.043
285.53,0.012
286,0.027
286.46,0.015
286.93,0.184
287.4,-0.087
287.87,0.179
288.34,0.027
288.8,0.029
289.27,0.032
289.74,0.013
290.21,0.023
290.68,0.046
291.14,-0.121
291.61,0.03
292.08,0.111
292.55,-0.155
293.01,0.025
293.48,0.11
293.95,0.03
294.42,0.025
294.88,0.011
295.35,0.018
295.82,0.05
296.29,0.03
296.75,0.036
297.22,0.049
297.69,0.084
298.16,0.033
298.62,0.021
299.09,0.024
299.56,0.112
300.03,-0.094
300.49,0.041
300.96,0.045
301.43,0.027
301.89,0.047
302.36,0.095
302.83,0.028
303.29,0.073
303.76,-0.033
304.23,1.459
304.7,0.483
305.16,1.254
305.63,0.123
306.1,0.33
306.56,0.262
307.03,0.689
307.5,0.266
307.96,0.147
308.43,0.129
308.9,0.388
309.36,0.207
309.83,7.898
310.3,-0.316
310.76,-0.375
311.23,0.554
311.7,0.417
312.16,0.198
312.63,0.157
313.1,-2.116
313.56,0.319
314.03,0.226
314.5,0.411
314.96,0.897
315.43,-0.409
315.89,-1.984
316.36,0.328
316.83,0.415
317.29,-0.595
317.76,0.797
318.23,5.015
318.69,-0.223
319.16,0.174
319.62,0.266
320.09,0.208
320.56,2.192
321.02,0.202
321.49,0.105
321.95,0.11
322.42,0.348
322.89,0.249
323.35,0.239
323.82,0.571
324.28,0.18
324.75,0.235
325.21,0.129
325.68,0.109
326.15,0.184
326.61,-0.275
327.08,-1.533
327.54,0.225
328.01,0.189
328.47,4.497
328.94,0.121
329.4,0.345
329.87,0.166
330.34,0.147
330.8,0.178
331.27,0.288
331.73,-1.853
332.2,0.211
332.66,0.102
333.13,0.162
333.59,0.467
334.06,0.269
334.52,0.132
334.99,0.118
335.45,0.116
335.92,0.487
336.38,0.327
336.85,0.11
337.31,0.365
337.78,0.244
338.24,0.61
338.71,0.351
339.17,0.529
339.64,0.244
340.1,0.191
340.57,0.965
341.03,0.15
341.5,0.352
341.96,0.511
342.43,0.161
342.89,0.971
343.36,0.467
343.82,0.287
344.29,0.15
344.75,0.645
345.22,7.75
345.68,0.222
346.14,0.187
346.61,0.22
347.07,0.177
347.54,0.174
348,0.122
348.47,0.296
348.93,0.149
349.4,0.274
349.86,0.363
350.32,0.427
350.79,0.3
351.25,0.206
351.72,0.173
352.18,0.297
352.64,0.179
353.11,0.242
353.57,0.273
354.04,0.261
354.5,0.284
354.96,0.214
355.43,0.284
355.89,0.245
356.36,0.319
356.82,0.291
357.28,0.33
357.75,0.28
358.21,0.191
358.68,0.15
359.14,0.231
359.6,0.214
360.07,0.206
360.53,0.195
360.99,0.188
361.46,0.163
361.92,0.208
362.39,0.189
362.85,0.206
363.31,0.177
363.78,0.132
364.24,0.208
364.7,0.208
365.17,0.244
365.63,0.271
366.09,0.153
366.56,0.156
367.02,0.173
367.48,0.133
367.95,0.157
368.41,0.162
368.87,0.186
369.34,0.146
369.8,0.157
370.26,0.179
370.72,0.14
371.19,0.175
371.65,0.164
372.11,0.159
372.58,0.199
373.04,0.173
373.5,0.146
373.97,0.177
374.43,0.189
374.89,0.173
375.35,0.168
375.82,0.147
376.28,0.184
376.74,0.186
377.2,0.145
377.67,0.179
378.13,0.147
378.59,0.195
379.06,0.153
379.52,0.151
379.98,0.155
380.44,0.132
380.91,0.158
381.37,0.154
381.83,0.166
382.29,0.18
382.75,0.12
383.22,0.193
383.68,0.16
384.14,0.143
384.6,0.163
385.07,0.155
385.53,0.162
385.99,0.191
386.45,0.187
386.91,0.212
387.38,0.241
387.84,0.271
388.3,0.234
388.76,0.271
389.23,0.269
389.69,0.26
390.15,0.244
390.61,0.251
391.07,0.272
391.53,0.238
392,0.218
392.46,0.22
392.92,0.206
393.38,0.206
393.84,0.209
394.31,0.178
394.77,0.179
395.23,0.164
395.69,0.191
396.15,0.173
396.61,0.136
397.07,0.157
397.54,0.141
398,0.136
398.46,0.122
398.92,0.149
399.38,0.138
399.84,0.142
400.3,0.136
400.77,0.118
401.23,0.121
401.69,0.133
402.15,0.12
402.61,0.125
403.07,0.112
403.53,0.114
403.99,0.116
404.46,0.129
404.92,0.118
405.38,0.107
405.84,0.107
406.3,0.111
406.76,0.11
407.22,0.102
407.68,0.113
408.14,0.121
408.6,0.104
409.06,0.104
409.53,0.117
409.99,0.116
410.45,0.103
410.91,0.101
411.37,0.109
411.83,0.103
412.29,0.109
412.75,0.105
413.21,0.1
413.67,0.099
414.13,0.099
414.59,0.107
415.05,0.103
415.51,0.1
415.97,0.106
416.43,0.106
416.89,0.113
417.35,0.107
417.81,0.114
418.28,0.103
418.74,0.104
419.2,0.11
419.66,0.104
420.12,0.124
420.58,0.129
421.04,0.139
421.5,0.146
421.96,0.152
422.42,0.164
422.88,0.179
423.34,0.195
423.8,0.197
424.26,0.208
424.72,0.224
425.18,0.248
425.64,0.252
426.1,0.279
426.56,0.306
427.02,0.316
427.47,0.347
427.93,0.38
428.39,0.411
428.85,0.485
429.31,0.565
429.77,0.696
430.23,0.835
430.69,0.954
431.15,1.058
431.61,0.953
432.07,0.864
432.53,0.584
432.99,0.369
433.45,0.244
433.91,0.208
434.37,0.213
434.83,0.232
435.29,0.259
435.75,0.282
436.2,0.286
436.66,0.293
437.12,0.291
437.58,0.273
438.04,0.257
438.5,0.213
438.96,0.18
439.42,0.155
439.88,0.13
440.34,0.113
440.8,0.088
441.25,0.087
441.71,0.08
442.17,0.078
442.63,0.076
443.09,0.073
443.55,0.076
444.01,0.073
444.47,0.069
444.92,0.073
445.38,0.072
445.84,0.067
446.3,0.072
446.76,0.069
447.22,0.072
447.68,0.066
448.13,0.065
448.59,0.07
449.05,0.067
449.51,0.068
449.97,0.064
450.43,0.066
450.88,0.065
451.34,0.071
451.8,0.065
452.26,0.062
452.72,0.062
453.18,0.067
453.63,0.066
454.09,0.066
454.55,0.068
455.01,0.064
455.47,0.062
455.92,0.065
456.38,0.068
456.84,0.063
457.3,0.071
457.76,0.071
458.21,0.068
458.67,0.073
459.13,0.075
459.59,0.075
460.05,0.081
460.5,0.082
460.96,0.083
461.42,0.091
461.88,0.093
462.33,0.104
462.79,0.106
463.25,0.112
463.71,0.121
464.16,0.137
464.62,0.139
465.08,0.157
465.54,0.17
465.99,0.183
466.45,0.204
466.91,0.227
467.37,0.238
467.82,0.265
468.28,0.294
468.74,0.31
469.2,0.308
469.65,0.302
470.11,0.286
470.57,0.28
471.02,0.272
471.48,0.249
471.94,0.248
472.4,0.245
472.85,0.223
473.31,0.208
473.77,0.196
474.22,0.185
474.68,0.155
475.14,0.118
475.59,0.079
476.05,0.056
476.51,0.059
476.97,0.053
477.42,0.054
477.88,0.055
478.34,0.053
478.79,0.054
479.25,0.054
479.71,0.052
480.16,0.052
480.62,0.053
481.08,0.054
481.53,0.051
481.99,0.053
482.44,0.051
482.9,0.054
483.36,0.055
483.81,0.054
484.27,0.06
484.73,0.055
485.18,0.056
485.64,0.057
486.1,0.058
486.55,0.056
487.01,0.056
487.46,0.057
487.92,0.058
488.38,0.056
488.83,0.055
489.29,0.053
489.74,0.054
490.2,0.052
490.66,0.052
491.11,0.049
491.57,0.052
492.02,0.05
492.48,0.053
492.94,0.053
493.39,0.055
493.85,0.056
494.3,0.055
494.76,0.059
495.21,0.056
495.67,0.052
496.13,0.053
496.58,0.056
497.04,0.056
497.49,0.058
497.95,0.06
498.4,0.059
498.86,0.065
499.31,0.065
499.77,0.065
500.23,0.068
500.68,0.071
501.14,0.073
501.59,0.078
502.05,0.081
502.5,0.087
502.96,0.09
503.41,0.092
503.87,0.098
504.32,0.104
504.78,0.112
505.23,0.116
505.69,0.13
506.14,0.139
506.6,0.154
507.05,0.162
507.51,0.176
507.96,0.189
508.42,0.207
508.87,0.222
509.33,0.241
509.78,0.258
510.24,0.274
510.69,0.287
511.15,0.321
511.6,0.347
512.06,0.362
512.51,0.396
512.97,0.42
513.42,0.438
513.88,0.441
514.33,0.438
514.78,0.447
515.24,0.472
515.69,0.514
516.15,0.542
516.6,0.561
517.06,0.516
517.51,0.397
517.97,0.251
518.42,0.102
518.87,0.044
519.33,0.034
519.78,0.033
520.24,0.034
520.69,0.032
521.15,0.034
521.6,0.035
522.05,0.036
522.51,0.032
522.96,0.032
523.42,0.032
523.87,0.031
524.32,0.032
524.78,0.031
525.23,0.032
525.69,0.032
526.14,0.033
526.59,0.032
527.05,0.033
527.5,0.032
527.95,0.031
528.41,0.03
528.86,0.031
529.32,0.033
529.77,0.032
530.22,0.033
530.68,0.031
531.13,0.032
531.58,0.032
532.04,0.033
532.49,0.033
532.94,0.033
533.4,0.033
533.85,0.034
534.3,0.034
534.76,0.034
535.21,0.032
535.66,0.036
536.12,0.037
536.57,0.034
537.02,0.037
537.48,0.037
537.93,0.038
538.38,0.039
538.84,0.039
539.29,0.041
539.74,0.042
540.2,0.044
540.65,0.045
541.1,0.046
541.55,0.047
542.01,0.05
542.46,0.055
542.91,0.056
543.37,0.056
543.82,0.061
544.27,0.061
544.72,0.062
545.18,0.065
545.63,0.065
546.08,0.067
546.54,0.068
546.99,0.072
547.44,0.071
547.89,0.073
548.35,0.076
548.8,0.076
549.25,0.076
549.7,0.083
550.16,0.087
550.61,0.095
551.06,0.088
551.51,0.088
551.96,0.083
552.42,0.088
552.87,0.094
553.32,0.1
553.77,0.104
554.23,0.109
554.68,0.109
555.13,0.103
555.58,0.1
556.03,0.1
556.49,0.104
556.94,0.113
557.39,0.121
557.84,0.132
558.29,0.135
558.75,0.14
559.2,0.128
559.65,0.116
560.1,0.098
560.55,0.089
561.01,0.091
561.46,0.098
561.91,0.109
562.36,0.111
562.81,0.119
563.26,0.126
563.72,0.123
564.17,0.109
564.62,0.079
565.07,0.05
565.52,0.03
565.97,0.025
566.42,0.022
566.88,0.025
567.33,0.026
567.78,0.021
568.23,0.021
568.68,0.022
569.13,0.023
569.58,0.022
570.04,0.021
570.49,0.021
570.94,0.018
571.39,0.021
571.84,0.021
572.29,0.021
572.74,0.022
573.19,0.021
573.64,0.021
574.1,0.02
574.55,0.022
575,0.02
575.45,0.022
575.9,0.021
576.35,0.021
576.8,0.02
577.25,0.022
577.7,0.021
578.15,0.021
578.6,0.021
579.05,0.021
579.51,0.022
579.96,0.024
580.41,0.021
580.86,0.022
581.31,0.021
581.76,0.024
582.21,0.025
582.66,0.024
583.11,0.022
583.56,0.022
584.01,0.024
584.46,0.025
584.91,0.023
585.36,0.025
585.81,0.023
586.26,0.025
586.71,0.025
587.16,0.026
587.61,0.026
588.06,0.029
588.51,0.03
588.96,0.028
589.41,0.03
589.86,0.03
590.31,0.031
590.76,0.029
591.21,0.029
591.66,0.029
592.11,0.03
592.56,0.03
593.01,0.031
593.46,0.03
593.91,0.029
594.36,0.03
594.81,0.03
595.26,0.035
595.71,0.031
596.16,0.03
596.61,0.03
597.06,0.03
597.51,0.03
597.96,0.03
598.41,0.03
598.86,0.032
599.31,0.032
599.76,0.033
600.21,0.032
600.66,0.035
601.11,0.032
601.55,0.031
602,0.029
602.45,0.028
602.9,0.027
603.35,0.029
603.8,0.031
604.25,0.031
604.7,0.033
605.15,0.031
605.6,0.032
606.05,0.033
606.5,0.034
606.94,0.032
607.39,0.027
607.84,0.027
608.29,0.026
608.74,0.027
609.19,0.029
609.64,0.03
610.09,0.031
610.54,0.032
610.98,0.034
611.43,0.035
611.88,0.036
612.33,0.036
612.78,0.033
613.23,0.029
613.68,0.026
614.13,0.022
614.57,0.024
615.02,0.022
615.47,0.024
615.92,0.022
616.37,0.023
616.82,0.025
617.26,0.024
617.71,0.026
618.16,0.026
618.61,0.03
619.06,0.028
619.51,0.026
619.95,0.024
620.4,0.02
620.85,0.017
621.3,0.014
621.75,0.014
622.2,0.016
622.64,0.016
623.09,0.016
623.54,0.014
623.99,0.013
624.44,0.015
624.88,0.015
625.33,0.015
625.78,0.015
626.23,0.014
626.67,0.014
627.12,0.015
627.57,0.015
628.02,0.014
628.47,0.014
628.91,0.013
629.36,0.014
629.81,0.014
630.26,0.015
630.7,0.014
631.15,0.014
631.6,0.014
632.05,0.014
632.49,0.017
632.94,0.014
633.39,0.015
633.84,0.015
634.28,0.016
634.73,0.016
635.18,0.015
635.63,0.014
636.07,0.016
636.52,0.014
636.97,0.019
637.41,0.016
637.86,0.014
638.31,0.015
638.76,0.018
639.2,0.017
639.65,0.017
640.1,0.014
640.54,0.016
640.99,0.017
641.44,0.017
641.89,0.015
642.33,0.017
642.78,0.016
643.23,0.016
643.67,0.017
644.12,0.015
644.57,0.017
645.01,0.016
645.46,0.015
645.91,0.016
646.35,0.017
646.8,0.016
647.25,0.016
647.69,0.018
648.14,0.018
648.59,0.016
649.03,0.015
649.48,0.015
649.92,0.016
650.37,0.015
650.82,0.015
651.26,0.018
651.71,0.016
652.16,0.017
652.6,0.016
653.05,0.016
653.5,0.016
653.94,0.015
654.39,0.015
654.83,0.016
655.28,0.016
655.73,0.015
656.17,0.014
656.62,0.015
657.06,0.016
657.51,0.015
657.96,0.015
658.4,0.015
658.85,0.016
659.29,0.016
659.74,0.016
660.19,0.017
660.63,0.015
661.08,0.013
661.52,0.015
661.97,0.014
662.41,0.015
662.86,0.015
663.31,0.016
663.75,0.016
664.2,0.013
664.64,0.015
665.09,0.013
665.53,0.014
665.98,0.014
666.42,0.014
666.87,0.014
667.31,0.014
667.76,0.014
668.21,0.013
668.65,0.015
669.1,0.015
669.54,0.013
669.99,0.015
670.43,0.013
670.88,0.012
671.32,0.018
671.77,0.014
672.21,0.013
672.66,0.019
673.1,0.013
673.55,0.01
673.99,0.012
674.44,0.013
674.88,0.014
675.33,0.016
675.77,0.017
676.22,0.014
676.66,0.016
677.11,0.013
677.55,0.013
678,0.012
678.44,0.013
678.88,0.012
679.33,0.012
679.77,0.011
680.22,0.013
680.66,0.012
681.11,0.013
681.55,0.011
682,0.012
682.44,0.011
682.89,0.013
683.33,0.012
683.77,0.011
684.22,0.011
684.66,0.01
685.11,0.015
685.55,0.014
686,0.013
686.44,0.013
686.88,0.012
687.33,0.012
687.77,0.012
688.22,0.014
688.66,0.012
689.1,0.012
689.55,0.01
689.99,0.013
690.44,0.01
690.88,0.012
691.32,0.012
691.77,0.014
692.21,0.012
692.66,0.013
693.1,0.012
693.54,0.013
693.99,0.014
694.43,0.012
694.87,0.014
695.32,0.011
695.76,0.01
696.21,0.011
696.65,0.012
697.09,0.012
697.54,0.011
697.98,0.012
698.42,0.012
698.87,0.013
699.31,0.014
699.75,0.011
700.2,0.013
700.64,0.013
701.08,0.012
701.53,0.013
701.97,0.015
702.41,0.011
702.86,0.013
703.3,0.014
703.74,0.012
704.19,0.012
704.63,0.012
705.07,0.013
705.52,0.013
705.96,0.01
706.4,0.011
706.84,0.013
707.29,0.012
707.73,0.014
708.17,0.011
708.62,0.012
709.06,0.014
709.5,0.012
709.94,0.011
710.39,0.012
710.83,0.011
711.27,0.013
711.72,0.012
712.16,0.011
712.6,0.012
713.04,0.011
713.49,0.013
713.93,0.013
714.37,0.013
714.81,0.01
715.26,0.011
715.7,0.012
716.14,0.013
716.58,0.015
717.03,0.018
717.47,0.016
717.91,0.018
718.35,0.013
718.79,0.013
719.24,0.014
719.68,0.014
720.12,0.015
720.56,0.016
721.01,0.014
721.45,0.011
721.89,0.01
722.33,0.012
722.77,0.013
723.22,0.013
723.66,0.014
724.1,0.012
724.54,0.016
724.98,0.015
725.43,0.016
725.87,0.014
726.31,0.012
726.75,0.012
727.19,0.012
727.63,0.012
728.08,0.016
728.52,0.015
728.96,0.013
729.4,0.014
729.84,0.015
730.28,0.014
730.73,0.014
731.17,0.014
731.61,0.014
732.05,0.011
732.49,0.015
732.93,0.014
733.37,0.012
733.82,0.015
734.26,0.015
734.7,0.014
735.14,0.013
735.58,0.013
736.02,0.018
736.46,0.015
736.9,0.014
737.34,0.015
737.79,0.017
738.23,0.013
738.67,0.015
739.11,0.013
739.55,0.011
739.99,0.015
740.43,0.018
740.87,0.014
741.31,0.015
741.75,0.014
742.2,0.013
742.64,0.013
743.08,0.014
743.52,0.014
743.96,0.015
744.4,0.012
744.84,0.012
745.28,0.011
745.72,0.012
746.16,0.013
746.6,0.013
747.04,0.012
747.48,0.009
747.92,0.009
748.36,0.012
748.8,0.012
749.24,0.014
749.69,0.014
750.13,0.013
750.57,0.014
751.01,0.015
751.45,0.016
751.89,0.014
752.33,0.019
752.77,0.015
753.21,0.017
753.65,0.013
754.09,0.011
754.53,0.013
754.97,0.01
755.41,0.012
755.85,0.01
756.29,0.011
756.73,0.016
757.17,0.016
757.61,0.013
758.05,0.015
758.49,0.012
758.93,0.01
759.37,0.011
759.81,0.012
760.25,0.016
760.69,0.016
761.12,0.016
761.56,0.016
762,0.013
762.44,0.015
762.88,0.016
763.32,0.011
763.76,0.007
764.2,0.012
764.64,0.018
765.08,0.015
765.52,0.013
765.96,0.01
766.4,0.009
766.84,0.011
767.28,0.012
767.72,0.013
768.16,0.011
768.6,0.021
769.03,0.014
769.47,0.015
769.91,0.012
770.35,0.02
770.79,0.016
771.23,0.011
771.67,0.01
772.11,0.012
772.55,0.008
772.99,0.01
773.42,0.013
773.86,0.013
774.3,0.012
774.74,0.01
775.18,0.01
775.62,0.01
776.06,0.012
776.5,0.014
776.93,0.016
777.37,0.012
777.81,0.012
778.25,0.012
778.69,0.01
779.13,0.011
779.57,0.009
780,0.011
780.44,0.01
780.88,0.015
781.32,0.013
781.76,0.009
782.2,0.005
782.64,0.008
783.07,0.013
783.51,0.013
783.95,0.011
784.39,0.01
784.83,0.009
785.26,0.008
785.7,0.013
786.14,0.014
786.58,0.022
787.02,0.018
787.46,0.017
787.89,0.014
788.33,0.008
788.77,0.015
789.21,0.013
789.65,0.016
790.08,0.015
790.52,0.018
790.96,0.01
791.4,0.011
791.83,0.009
792.27,0.007
792.71,0.008
793.15,0.013
793.59,0.012
794.02,0.013
794.46,0.009
794.9,0.011
795.34,0.013
795.77,0.016
796.21,0.011
796.65,0.012
797.09,0.015
797.52,0.013
797.96,0.014
798.4,0.015
798.84,0.009
799.27,0.012
799.71,0.008
800.15,0.012
800.58,0.009
801.02,0.015
801.46,0.016
801.9,0.014
802.33,0.015
802.77,0.009
803.21,0.01
803.64,0.008
804.08,0.013
804.52,0.014
804.96,0.011
805.39,0.014
805.83,0.006
806.27,0.015
806.7,0.013
807.14,0.01
807.58,0.012
808.01,0.013
808.45,0.022
808.89,0.018
809.32,0.021
809.76,0.018
810.2,0.021
810.63,0.022
811.07,0.021
811.51,0.018
811.94,0.019
812.38,0.027
812.82,0.02
813.25,0.02
813.69,0.022
814.13,0.021
814.56,0.018
815,0.028
815.43,0.02
815.87,0.016
816.31,0.026
816.74,0.022
817.18,0.023
817.62,0.02
818.05,0.015
818.49,0.022
818.92,0.015
819.36,0.019
819.8,0.014
820.23,0.013
820.67,0.016
821.1,0.011
821.54,0.011
821.98,0.017
822.41,0.018
822.85,0.022
823.28,0.023
823.72,0.016
824.16,0.016
824.59,0.014
825.03,0.022
825.46,0.02
825.9,0.018
826.33,0.018
826.77,0.011
827.21,0.02
827.64,0.026
828.08,0.027
828.51,0.04
828.95,0.028
829.38,0.025
829.82,0.021
830.25,0.016
830.69,0.021
831.12,0.019
831.56,0.024
832,0.021
832.43,0.021
832.87,0.018
833.3,0.023
833.74,0.017
834.17,0.023
834.61,0.018
835.04,0.019
835.48,0.013
835.91,0.022
836.35,0.028
836.78,0.017
837.22,0.016
837.65,0.027
838.09,0.022
838.52,0.014
838.96,0.015
839.39,0.017
839.83,0.013
840.26,0.012
840.7,0.016
841.13,0.018
841.57,0.02
842,0.022
842.43,0.023
842.87,0.026
